Wavelength (nm)	spectral sensistivity
380	3.9E-5
381	4.4E-5
382	4.9E-5
383	5.4E-5
384	5.9E-5
385	6.4E-5
386	1.34E-4
387	2.04E-4
388	2.73E-4
389	3.43E-4
390	4.13E-4
391	5.42E-4
392	6.72E-4
393	8.01E-4
394	9.31E-4
395	0
396	0
397	0
398	0
399	0
400	0
401	0
402	0
403	0
404	0
405	0
406	0.01
407	0.01
408	0.01
409	0.01
410	0.01
411	0.01
412	0.01
413	0.01
414	0.01
415	0.01
416	0.02
417	0.02
418	0.02
419	0.02
420	0.02
421	0.02
422	0.02
423	0.02
424	0.03
425	0.03
426	0.03
427	0.03
428	0.03
429	0.03
430	0.03
431	0.04
432	0.04
433	0.04
434	0.04
435	0.04
436	0.04
437	0.05
438	0.05
439	0.05
440	0.05
441	0.05
442	0.05
443	0.06
444	0.06
445	0.06
446	0.06
447	0.06
448	0.06
449	0.07
450	0.07
451	0.07
452	0.07
453	0.07
454	0.07
455	0.07
456	0.08
457	0.08
458	0.08
459	0.09
460	0.09
461	0.09
462	0.1
463	0.1
464	0.1
465	0.11
466	0.11
467	0.12
468	0.12
469	0.13
470	0.13
471	0.14
472	0.14
473	0.15
474	0.15
475	0.16
476	0.16
477	0.17
478	0.17
479	0.18
480	0.18
481	0.19
482	0.19
483	0.2
484	0.21
485	0.21
486	0.22
487	0.22
488	0.23
489	0.24
490	0.24
491	0.25
492	0.26
493	0.27
494	0.28
495	0.29
496	0.3
497	0.32
498	0.33
499	0.34
500	0.36
501	0.37
502	0.39
503	0.4
504	0.42
505	0.44
506	0.45
507	0.47
508	0.49
509	0.51
510	0.53
511	0.55
512	0.57
513	0.59
514	0.61
515	0.63
516	0.65
517	0.67
518	0.69
519	0.71
520	0.73
521	0.74
522	0.76
523	0.77
524	0.79
525	0.8
526	0.82
527	0.83
528	0.84
529	0.85
530	0.87
531	0.88
532	0.89
533	0.9
534	0.9
535	0.91
536	0.92
537	0.93
538	0.94
539	0.95
540	0.96
541	0.97
542	0.97
543	0.98
544	0.98
545	0.99
546	0.99
547	0.99
548	0.99
549	0.99
550	0.99
551	0.99
552	0.99
553	1
554	1
555	1
556	1
557	1
558	1
559	1
560	0.99
561	0.99
562	0.99
563	0.99
564	0.99
565	0.99
566	0.98
567	0.98
568	0.97
569	0.97
570	0.97
571	0.96
572	0.95
573	0.94
574	0.94
575	0.93
576	0.92
577	0.91
578	0.9
579	0.89
580	0.88
581	0.87
582	0.87
583	0.86
584	0.85
585	0.84
586	0.83
587	0.82
588	0.81
589	0.8
590	0.79
591	0.78
592	0.77
593	0.76
594	0.74
595	0.73
596	0.72
597	0.71
598	0.69
599	0.68
600	0.67
601	0.66
602	0.64
603	0.63
604	0.62
605	0.6
606	0.59
607	0.58
608	0.56
609	0.55
610	0.54
611	0.52
612	0.51
613	0.49
614	0.48
615	0.47
616	0.45
617	0.44
618	0.43
619	0.42
620	0.4
621	0.39
622	0.38
623	0.37
624	0.35
625	0.34
626	0.33
627	0.32
628	0.31
629	0.29
630	0.28
631	0.27
632	0.26
633	0.25
634	0.24
635	0.23
636	0.22
637	0.21
638	0.2
639	0.19
640	0.18
641	0.18
642	0.17
643	0.16
644	0.15
645	0.15
646	0.14
647	0.13
648	0.13
649	0.12
650	0.11
651	0.11
652	0.1
653	0.1
654	0.09
655	0.08
656	0.08
657	0.08
658	0.07
659	0.07
660	0.06
661	0.06
662	0.06
663	0.05
664	0.05
665	0.05
666	0.04
667	0.04
668	0.04
669	0.04
670	0.03
671	0.03
672	0.03
673	0.03
674	0.03
675	0.02
676	0.02
677	0.02
678	0.02
679	0.02
680	0.02
681	0.02
682	0.01
683	0.01
684	0.01
685	0.01
686	0.01
687	0.01
688	0.01
689	0.01
690	0.01
691	0.01
692	0.01
693	0.01
694	0.01
695	0.01
696	0.01
697	0
698	0
699	0
700	0
701	0
702	0
703	0
704	0
705	0
706	0
707	0
708	0
709	0
710	0
711	0
712	0
713	0
714	0
715	0
716	0
717	0
718	0
719	9.66E-4
720	8.87E-4
721	8.32E-4
722	7.78E-4
723	7.23E-4
724	6.69E-4
725	6.14E-4
726	5.77E-4
727	5.4E-4
728	5.02E-4
729	4.65E-4
730	4.28E-4
731	4.02E-4
732	3.76E-4
733	3.51E-4
734	3.25E-4
735	2.99E-4
736	2.81E-4
737	2.63E-4
738	2.44E-4
739	2.26E-4
740	2.08E-4
741	1.96E-4
742	1.84E-4
743	1.71E-4
744	1.59E-4
745	1.47E-4
746	1.38E-4
747	1.3E-4
748	1.21E-4
749	1.13E-4
750	1.04E-4
751	9.79E-5
752	9.18E-5
753	8.57E-5
754	7.96E-5
755	7.35E-5
756	6.93E-5
757	6.51E-5
758	6.08E-5
759	5.66E-5
760	5.24E-5
761	4.94E-5
762	4.64E-5
763	4.34E-5
764	4.04E-5
765	3.74E-5
766	3.53E-5
767	3.32E-5
768	3.11E-5
769	2.9E-5
770	2.69E-5
771	2.54E-5
772	2.39E-5
773	2.23E-5
774	2.08E-5
775	1.93E-5
776	1.82E-5
777	1.72E-5
778	1.61E-5
779	1.51E-5
780	1.4E-5